# protocol of ionization, dimensionless
# time[fs] ioniz./N_elect ionization ioniz.from absorption
      0.00000 -8.43769E-15 -1.68754E-14   0.0000    
      0.02420  5.56474E-09  1.11295E-08  1.11299E-08
      0.04840  8.01043E-09  1.60209E-08  1.60212E-08
      0.07260  1.00335E-08  2.00669E-08  2.00674E-08
      0.09680  1.19983E-08  2.39965E-08  2.39969E-08
      0.12100  1.40033E-08  2.80066E-08  2.80070E-08
      0.14520  1.61259E-08  3.22518E-08  3.22522E-08
      0.16940  1.89745E-08  3.79490E-08  3.79493E-08
      0.19360  2.51398E-08  5.02796E-08  5.02799E-08
      0.21780  4.62116E-08  9.24232E-08  9.24236E-08
      0.24200  1.05281E-07  2.10563E-07  2.10563E-07
      0.26620  2.37996E-07  4.75992E-07  4.75992E-07
      0.29040  4.64260E-07  9.28521E-07  9.28521E-07
      0.31460  7.94176E-07  1.58835E-06  1.58835E-06
      0.33880  1.28298E-06  2.56595E-06  2.56595E-06
      0.36300  2.08933E-06  4.17865E-06  4.17865E-06
      0.38720  3.37454E-06  6.74908E-06  6.74908E-06
      0.41140  5.14305E-06  1.02861E-05  1.02861E-05
      0.43560  7.29371E-06  1.45874E-05  1.45874E-05
      0.45980  9.75491E-06  1.95098E-05  1.95098E-05
      0.48400  1.25307E-05  2.50613E-05  2.50613E-05
      0.50820  1.56254E-05  3.12508E-05  3.12508E-05
      0.53240  1.89901E-05  3.79801E-05  3.79801E-05
      0.55660  2.25167E-05  4.50334E-05  4.50334E-05
      0.58080  2.60675E-05  5.21351E-05  5.21351E-05
      0.60500  2.95389E-05  5.90777E-05  5.90777E-05
      0.62920  3.28941E-05  6.57882E-05  6.57882E-05
      0.65340  3.61617E-05  7.23234E-05  7.23234E-05
      0.67760  3.94473E-05  7.88946E-05  7.88946E-05
      0.70180  4.28743E-05  8.57487E-05  8.57487E-05
      0.72600  4.66417E-05  9.32834E-05  9.32834E-05
      0.75020  5.08873E-05  1.01775E-04  1.01775E-04
      0.77440  5.58066E-05  1.11613E-04  1.11613E-04
      0.79860  6.15198E-05  1.23040E-04  1.23040E-04
      0.82280  6.81153E-05  1.36231E-04  1.36231E-04
      0.84700  7.57330E-05  1.51466E-04  1.51466E-04
      0.87120  8.44170E-05  1.68834E-04  1.68834E-04
      0.89540  9.41744E-05  1.88349E-04  1.88349E-04
      0.91960  1.05059E-04  2.10118E-04  2.10118E-04
      0.94380  1.17119E-04  2.34238E-04  2.34238E-04
      0.96800  1.30292E-04  2.60585E-04  2.60585E-04
      0.99220  1.44437E-04  2.88874E-04  2.88874E-04
      1.01640  1.59525E-04  3.19050E-04  3.19050E-04
      1.04060  1.75650E-04  3.51300E-04  3.51300E-04
      1.06480  1.92755E-04  3.85510E-04  3.85510E-04
      1.08900  2.10554E-04  4.21108E-04  4.21108E-04
      1.11320  2.28814E-04  4.57627E-04  4.57627E-04
      1.13740  2.47575E-04  4.95149E-04  4.95149E-04
      1.16160  2.67002E-04  5.34004E-04  5.34004E-04
      1.18580  2.87057E-04  5.74113E-04  5.74113E-04
      1.21000  3.07445E-04  6.14889E-04  6.14889E-04
      1.23420  3.27824E-04  6.55648E-04  6.55648E-04
      1.25840  3.48066E-04  6.96133E-04  6.96133E-04
      1.28260  3.68249E-04  7.36498E-04  7.36498E-04
      1.30680  3.88511E-04  7.77022E-04  7.77022E-04
      1.33100  4.08846E-04  8.17693E-04  8.17693E-04
      1.35520  4.29095E-04  8.58190E-04  8.58190E-04
      1.37940  4.49034E-04  8.98068E-04  8.98068E-04
      1.40360  4.68501E-04  9.37001E-04  9.37001E-04
      1.42780  4.87477E-04  9.74954E-04  9.74954E-04
      1.45200  5.06042E-04  1.01208E-03  1.01208E-03
      1.47620  5.24278E-04  1.04856E-03  1.04856E-03
      1.50040  5.42229E-04  1.08446E-03  1.08446E-03
      1.52460  5.59853E-04  1.11971E-03  1.11971E-03
      1.54880  5.77027E-04  1.15405E-03  1.15405E-03
      1.57300  5.93644E-04  1.18729E-03  1.18729E-03
      1.59720  6.09660E-04  1.21932E-03  1.21932E-03
      1.62140  6.25066E-04  1.25013E-03  1.25013E-03
      1.64560  6.39913E-04  1.27983E-03  1.27983E-03
      1.66980  6.54326E-04  1.30865E-03  1.30865E-03
      1.69400  6.68413E-04  1.33683E-03  1.33683E-03
      1.71820  6.82215E-04  1.36443E-03  1.36443E-03
      1.74240  6.95742E-04  1.39148E-03  1.39148E-03
      1.76660  7.08999E-04  1.41800E-03  1.41800E-03
      1.79080  7.21952E-04  1.44390E-03  1.44390E-03
      1.81500  7.34517E-04  1.46903E-03  1.46903E-03
      1.83920  7.46617E-04  1.49323E-03  1.49323E-03
      1.86340  7.58227E-04  1.51645E-03  1.51645E-03
      1.88760  7.69362E-04  1.53872E-03  1.53872E-03
      1.91180  7.80044E-04  1.56009E-03  1.56009E-03
      1.93600  7.90301E-04  1.58060E-03  1.58060E-03
      1.96020  8.00181E-04  1.60036E-03  1.60036E-03
      1.98440  8.09759E-04  1.61952E-03  1.61952E-03
      2.00860  8.19119E-04  1.63824E-03  1.63824E-03
      2.03280  8.28319E-04  1.65664E-03  1.65664E-03
      2.05700  8.37393E-04  1.67479E-03  1.67479E-03
      2.08120  8.46355E-04  1.69271E-03  1.69271E-03
      2.10540  8.55212E-04  1.71042E-03  1.71042E-03
      2.12960  8.63970E-04  1.72794E-03  1.72794E-03
      2.15380  8.72624E-04  1.74525E-03  1.74525E-03
      2.17800  8.81154E-04  1.76231E-03  1.76231E-03
      2.20220  8.89537E-04  1.77907E-03  1.77907E-03
      2.22640  8.97746E-04  1.79549E-03  1.79549E-03
      2.25060  9.05764E-04  1.81153E-03  1.81153E-03
      2.27480  9.13587E-04  1.82717E-03  1.82717E-03
      2.29900  9.21220E-04  1.84244E-03  1.84244E-03
      2.32320  9.28671E-04  1.85734E-03  1.85734E-03
      2.34740  9.35955E-04  1.87191E-03  1.87191E-03
      2.37160  9.43090E-04  1.88618E-03  1.88618E-03
      2.39580  9.50101E-04  1.90020E-03  1.90020E-03
      2.42000  9.57017E-04  1.91403E-03  1.91403E-03
      2.44420  9.63872E-04  1.92774E-03  1.92774E-03
      2.46840  9.70708E-04  1.94142E-03  1.94142E-03
      2.49260  9.77565E-04  1.95513E-03  1.95513E-03
      2.51680  9.84481E-04  1.96896E-03  1.96896E-03
      2.54100  9.91491E-04  1.98298E-03  1.98298E-03
      2.56520  9.98628E-04  1.99726E-03  1.99726E-03
      2.58940  1.00592E-03  2.01184E-03  2.01184E-03
      2.61360  1.01339E-03  2.02679E-03  2.02679E-03
      2.63780  1.02107E-03  2.04214E-03  2.04214E-03
      2.66200  1.02896E-03  2.05792E-03  2.05792E-03
      2.68620  1.03708E-03  2.07415E-03  2.07415E-03
      2.71040  1.04542E-03  2.09085E-03  2.09085E-03
      2.73460  1.05400E-03  2.10799E-03  2.10799E-03
      2.75880  1.06278E-03  2.12556E-03  2.12556E-03
      2.78300  1.07176E-03  2.14352E-03  2.14352E-03
      2.80720  1.08091E-03  2.16182E-03  2.16182E-03
      2.83140  1.09021E-03  2.18041E-03  2.18041E-03
      2.85560  1.09961E-03  2.19923E-03  2.19923E-03
      2.87980  1.10910E-03  2.21820E-03  2.21820E-03
      2.90400  1.11862E-03  2.23725E-03  2.23725E-03
      2.92820  1.12815E-03  2.25630E-03  2.25630E-03
      2.95240  1.13764E-03  2.27528E-03  2.27528E-03
      2.97660  1.14706E-03  2.29411E-03  2.29411E-03
      3.00080  1.15636E-03  2.31273E-03  2.31273E-03
      3.02500  1.16553E-03  2.33106E-03  2.33106E-03
      3.04920  1.17452E-03  2.34904E-03  2.34904E-03
      3.07340  1.18331E-03  2.36662E-03  2.36662E-03
      3.09760  1.19188E-03  2.38375E-03  2.38375E-03
      3.12180  1.20021E-03  2.40042E-03  2.40042E-03
      3.14600  1.20830E-03  2.41660E-03  2.41660E-03
      3.17020  1.21614E-03  2.43229E-03  2.43229E-03
      3.19440  1.22376E-03  2.44751E-03  2.44751E-03
      3.21860  1.23115E-03  2.46230E-03  2.46230E-03
      3.24280  1.23835E-03  2.47670E-03  2.47670E-03
      3.26700  1.24539E-03  2.49078E-03  2.49078E-03
      3.29120  1.25232E-03  2.50464E-03  2.50464E-03
      3.31540  1.25918E-03  2.51836E-03  2.51836E-03
      3.33960  1.26604E-03  2.53209E-03  2.53209E-03
      3.36380  1.27297E-03  2.54594E-03  2.54594E-03
      3.38800  1.28004E-03  2.56008E-03  2.56008E-03
      3.41220  1.28733E-03  2.57467E-03  2.57467E-03
      3.43640  1.29493E-03  2.58987E-03  2.58987E-03
      3.46060  1.30293E-03  2.60586E-03  2.60586E-03
      3.48480  1.31141E-03  2.62282E-03  2.62282E-03
      3.50900  1.32047E-03  2.64093E-03  2.64093E-03
      3.53320  1.33018E-03  2.66035E-03  2.66035E-03
      3.55740  1.34062E-03  2.68124E-03  2.68124E-03
      3.58160  1.35187E-03  2.70373E-03  2.70373E-03
      3.60580  1.36398E-03  2.72795E-03  2.72795E-03
      3.63000  1.37700E-03  2.75400E-03  2.75400E-03
      3.65420  1.39097E-03  2.78195E-03  2.78195E-03
      3.67840  1.40592E-03  2.81185E-03  2.81185E-03
      3.70260  1.42186E-03  2.84371E-03  2.84371E-03
      3.72680  1.43878E-03  2.87755E-03  2.87755E-03
      3.75100  1.45666E-03  2.91332E-03  2.91332E-03
      3.77520  1.47549E-03  2.95098E-03  2.95098E-03
      3.79940  1.49523E-03  2.99046E-03  2.99046E-03
      3.82360  1.51582E-03  3.03164E-03  3.03164E-03
      3.84780  1.53722E-03  3.07444E-03  3.07444E-03
      3.87200  1.55936E-03  3.11872E-03  3.11872E-03
      3.89620  1.58217E-03  3.16434E-03  3.16434E-03
      3.92040  1.60558E-03  3.21117E-03  3.21117E-03
      3.94460  1.62952E-03  3.25904E-03  3.25904E-03
      3.96880  1.65390E-03  3.30781E-03  3.30781E-03
      3.99300  1.67866E-03  3.35732E-03  3.35732E-03
      4.01720  1.70371E-03  3.40742E-03  3.40742E-03
      4.04140  1.72898E-03  3.45796E-03  3.45796E-03
      4.06560  1.75441E-03  3.50882E-03  3.50882E-03
      4.08980  1.77992E-03  3.55985E-03  3.55985E-03
      4.11400  1.80547E-03  3.61095E-03  3.61095E-03
      4.13820  1.83100E-03  3.66200E-03  3.66200E-03
      4.16240  1.85646E-03  3.71291E-03  3.71291E-03
      4.18660  1.88180E-03  3.76360E-03  3.76360E-03
      4.21080  1.90700E-03  3.81399E-03  3.81399E-03
      4.23500  1.93201E-03  3.86401E-03  3.86401E-03
      4.25920  1.95680E-03  3.91359E-03  3.91359E-03
      4.28340  1.98135E-03  3.96269E-03  3.96269E-03
      4.30760  2.00563E-03  4.01125E-03  4.01125E-03
      4.33180  2.02963E-03  4.05925E-03  4.05925E-03
      4.35600  2.05333E-03  4.10665E-03  4.10665E-03
      4.38020  2.07672E-03  4.15345E-03  4.15345E-03
      4.40440  2.09981E-03  4.19963E-03  4.19963E-03
      4.42860  2.12260E-03  4.24520E-03  4.24520E-03
      4.45280  2.14509E-03  4.29017E-03  4.29017E-03
      4.47700  2.16728E-03  4.33455E-03  4.33455E-03
      4.50120  2.18918E-03  4.37836E-03  4.37836E-03
      4.52540  2.21080E-03  4.42160E-03  4.42160E-03
      4.54960  2.23215E-03  4.46430E-03  4.46430E-03
      4.57380  2.25324E-03  4.50648E-03  4.50648E-03
      4.59800  2.27408E-03  4.54816E-03  4.54816E-03
      4.62220  2.29467E-03  4.58935E-03  4.58935E-03
      4.64640  2.31503E-03  4.63007E-03  4.63007E-03
      4.67060  2.33517E-03  4.67033E-03  4.67033E-03
      4.69480  2.35507E-03  4.71014E-03  4.71014E-03
      4.71900  2.37475E-03  4.74950E-03  4.74950E-03
      4.74320  2.39421E-03  4.78841E-03  4.78841E-03
      4.76740  2.41343E-03  4.82686E-03  4.82686E-03
      4.79160  2.43242E-03  4.86484E-03  4.86484E-03
      4.81580  2.45118E-03  4.90236E-03  4.90236E-03
      4.84000  2.46970E-03  4.93939E-03  4.93939E-03
      4.86420  2.48798E-03  4.97596E-03  4.97596E-03
      4.88840  2.50603E-03  5.01206E-03  5.01206E-03
      4.91260  2.52385E-03  5.04769E-03  5.04769E-03
      4.93680  2.54143E-03  5.08287E-03  5.08287E-03
      4.96100  2.55880E-03  5.11760E-03  5.11760E-03
      4.98520  2.57596E-03  5.15191E-03  5.15191E-03
      5.00940  2.59293E-03  5.18585E-03  5.18585E-03
      5.03360  2.60973E-03  5.21946E-03  5.21946E-03
      5.05780  2.62640E-03  5.25280E-03  5.25280E-03
      5.08200  2.64297E-03  5.28594E-03  5.28594E-03
      5.10620  2.65949E-03  5.31897E-03  5.31897E-03
      5.13040  2.67599E-03  5.35198E-03  5.35198E-03
      5.15460  2.69253E-03  5.38506E-03  5.38506E-03
      5.17880  2.70916E-03  5.41832E-03  5.41832E-03
      5.20300  2.72592E-03  5.45185E-03  5.45185E-03
      5.22720  2.74288E-03  5.48576E-03  5.48576E-03
      5.25140  2.76008E-03  5.52015E-03  5.52015E-03
      5.27560  2.77757E-03  5.55515E-03  5.55515E-03
      5.29980  2.79542E-03  5.59084E-03  5.59084E-03
      5.32400  2.81367E-03  5.62733E-03  5.62733E-03
      5.34820  2.83235E-03  5.66470E-03  5.66470E-03
      5.37240  2.85151E-03  5.70301E-03  5.70301E-03
      5.39660  2.87115E-03  5.74231E-03  5.74231E-03
      5.42080  2.89131E-03  5.78263E-03  5.78263E-03
      5.44500  2.91199E-03  5.82398E-03  5.82398E-03
      5.46920  2.93318E-03  5.86635E-03  5.86635E-03
      5.49340  2.95487E-03  5.90974E-03  5.90974E-03
      5.51760  2.97705E-03  5.95410E-03  5.95410E-03
      5.54180  2.99970E-03  5.99940E-03  5.99940E-03
      5.56600  3.02278E-03  6.04556E-03  6.04556E-03
      5.59020  3.04626E-03  6.09251E-03  6.09251E-03
      5.61440  3.07009E-03  6.14018E-03  6.14018E-03
      5.63860  3.09424E-03  6.18849E-03  6.18849E-03
      5.66280  3.11866E-03  6.23732E-03  6.23732E-03
      5.68700  3.14329E-03  6.28659E-03  6.28659E-03
      5.71120  3.16809E-03  6.33618E-03  6.33618E-03
      5.73540  3.19300E-03  6.38601E-03  6.38601E-03
      5.75960  3.21797E-03  6.43595E-03  6.43595E-03
      5.78380  3.24296E-03  6.48591E-03  6.48591E-03
      5.80800  3.26790E-03  6.53581E-03  6.53581E-03
      5.83220  3.29277E-03  6.58554E-03  6.58554E-03
      5.85640  3.31751E-03  6.63503E-03  6.63503E-03
      5.88060  3.34210E-03  6.68420E-03  6.68420E-03
      5.90480  3.36651E-03  6.73302E-03  6.73302E-03
      5.92900  3.39072E-03  6.78144E-03  6.78144E-03
      5.95320  3.41472E-03  6.82944E-03  6.82944E-03
      5.97740  3.43852E-03  6.87704E-03  6.87704E-03
      6.00160  3.46212E-03  6.92425E-03  6.92425E-03
      6.02580  3.48554E-03  6.97108E-03  6.97108E-03
      6.05000  3.50881E-03  7.01761E-03  7.01761E-03
      6.07420  3.53195E-03  7.06391E-03  7.06391E-03
      6.09840  3.55503E-03  7.11006E-03  7.11006E-03
      6.12260  3.57809E-03  7.15618E-03  7.15618E-03
      6.14680  3.60119E-03  7.20239E-03  7.20239E-03
      6.17100  3.62441E-03  7.24882E-03  7.24882E-03
      6.19520  3.64780E-03  7.29561E-03  7.29561E-03
      6.21940  3.67145E-03  7.34289E-03  7.34289E-03
      6.24360  3.69541E-03  7.39083E-03  7.39083E-03
      6.26780  3.71977E-03  7.43954E-03  7.43954E-03
      6.29200  3.74458E-03  7.48917E-03  7.48917E-03
      6.31620  3.76992E-03  7.53984E-03  7.53984E-03
      6.34040  3.79583E-03  7.59166E-03  7.59166E-03
      6.36460  3.82237E-03  7.64474E-03  7.64474E-03
      6.38880  3.84957E-03  7.69915E-03  7.69915E-03
      6.41300  3.87747E-03  7.75495E-03  7.75495E-03
      6.43720  3.90609E-03  7.81217E-03  7.81217E-03
      6.46140  3.93542E-03  7.87084E-03  7.87084E-03
      6.48560  3.96547E-03  7.93094E-03  7.93094E-03
      6.50980  3.99622E-03  7.99243E-03  7.99243E-03
      6.53400  4.02763E-03  8.05527E-03  8.05527E-03
      6.55820  4.05969E-03  8.11937E-03  8.11937E-03
      6.58240  4.09232E-03  8.18465E-03  8.18465E-03
      6.60660  4.12549E-03  8.25099E-03  8.25099E-03
      6.63080  4.15914E-03  8.31827E-03  8.31827E-03
      6.65500  4.19318E-03  8.38637E-03  8.38637E-03
      6.67920  4.22758E-03  8.45515E-03  8.45515E-03
      6.70340  4.26225E-03  8.52449E-03  8.52449E-03
      6.72760  4.29713E-03  8.59425E-03  8.59425E-03
      6.75180  4.33216E-03  8.66432E-03  8.66432E-03
      6.77600  4.36728E-03  8.73456E-03  8.73456E-03
      6.80020  4.40244E-03  8.80488E-03  8.80488E-03
      6.82440  4.43759E-03  8.87517E-03  8.87517E-03
      6.84860  4.47267E-03  8.94535E-03  8.94535E-03
      6.87280  4.50767E-03  9.01534E-03  9.01534E-03
      6.89700  4.54254E-03  9.08509E-03  9.08509E-03
      6.92120  4.57727E-03  9.15455E-03  9.15455E-03
      6.94540  4.61184E-03  9.22368E-03  9.22368E-03
      6.96960  4.64623E-03  9.29246E-03  9.29246E-03
      6.99380  4.68045E-03  9.36091E-03  9.36091E-03
      7.01800  4.71451E-03  9.42901E-03  9.42901E-03
      7.04220  4.74840E-03  9.49680E-03  9.49680E-03
      7.06640  4.78214E-03  9.56429E-03  9.56429E-03
      7.09060  4.81575E-03  9.63151E-03  9.63151E-03
      7.11480  4.84924E-03  9.69849E-03  9.69849E-03
      7.13900  4.88264E-03  9.76527E-03  9.76527E-03
      7.16320  4.91595E-03  9.83190E-03  9.83190E-03
      7.18740  4.94920E-03  9.89839E-03  9.89839E-03
      7.21160  4.98240E-03  9.96479E-03  9.96479E-03
      7.23580  5.01556E-03  1.00311E-02  1.00311E-02
      7.26000  5.04870E-03  1.00974E-02  1.00974E-02
      7.28420  5.08183E-03  1.01637E-02  1.01637E-02
      7.30840  5.11495E-03  1.02299E-02  1.02299E-02
      7.33260  5.14806E-03  1.02961E-02  1.02961E-02
      7.35680  5.18117E-03  1.03623E-02  1.03623E-02
      7.38100  5.21426E-03  1.04285E-02  1.04285E-02
      7.40520  5.24735E-03  1.04947E-02  1.04947E-02
      7.42940  5.28042E-03  1.05608E-02  1.05608E-02
      7.45360  5.31345E-03  1.06269E-02  1.06269E-02
      7.47780  5.34643E-03  1.06929E-02  1.06929E-02
      7.50200  5.37934E-03  1.07587E-02  1.07587E-02
      7.52620  5.41213E-03  1.08243E-02  1.08243E-02
      7.55040  5.44479E-03  1.08896E-02  1.08896E-02
      7.57460  5.47726E-03  1.09545E-02  1.09545E-02
      7.59880  5.50950E-03  1.10190E-02  1.10190E-02
      7.62300  5.54146E-03  1.10829E-02  1.10829E-02
      7.64720  5.57310E-03  1.11462E-02  1.11462E-02
      7.67140  5.60436E-03  1.12087E-02  1.12087E-02
      7.69560  5.63520E-03  1.12704E-02  1.12704E-02
      7.71980  5.66556E-03  1.13311E-02  1.13311E-02
      7.74400  5.69541E-03  1.13908E-02  1.13908E-02
      7.76820  5.72470E-03  1.14494E-02  1.14494E-02
      7.79240  5.75340E-03  1.15068E-02  1.15068E-02
      7.81660  5.78148E-03  1.15630E-02  1.15630E-02
      7.84080  5.80892E-03  1.16178E-02  1.16178E-02
      7.86500  5.83569E-03  1.16714E-02  1.16714E-02
      7.88920  5.86181E-03  1.17236E-02  1.17236E-02
      7.91340  5.88729E-03  1.17746E-02  1.17746E-02
      7.93760  5.91215E-03  1.18243E-02  1.18243E-02
      7.96180  5.93645E-03  1.18729E-02  1.18729E-02
      7.98600  5.96024E-03  1.19205E-02  1.19205E-02
      8.01020  5.98360E-03  1.19672E-02  1.19672E-02
      8.03440  6.00662E-03  1.20132E-02  1.20132E-02
      8.05860  6.02939E-03  1.20588E-02  1.20588E-02
      8.08280  6.05204E-03  1.21041E-02  1.21041E-02
      8.10700  6.07467E-03  1.21493E-02  1.21493E-02
      8.13120  6.09744E-03  1.21949E-02  1.21949E-02
      8.15540  6.12047E-03  1.22409E-02  1.22409E-02
      8.17960  6.14389E-03  1.22878E-02  1.22878E-02
      8.20380  6.16783E-03  1.23357E-02  1.23357E-02
      8.22800  6.19242E-03  1.23848E-02  1.23848E-02
      8.25220  6.21774E-03  1.24355E-02  1.24355E-02
      8.27640  6.24389E-03  1.24878E-02  1.24878E-02
      8.30060  6.27095E-03  1.25419E-02  1.25419E-02
      8.32480  6.29897E-03  1.25979E-02  1.25979E-02
      8.34900  6.32799E-03  1.26560E-02  1.26560E-02
      8.37320  6.35804E-03  1.27161E-02  1.27161E-02
      8.39740  6.38914E-03  1.27783E-02  1.27783E-02
      8.42160  6.42126E-03  1.28425E-02  1.28425E-02
      8.44580  6.45440E-03  1.29088E-02  1.29088E-02
      8.47000  6.48852E-03  1.29770E-02  1.29770E-02
      8.49420  6.52355E-03  1.30471E-02  1.30471E-02
      8.51840  6.55945E-03  1.31189E-02  1.31189E-02
      8.54260  6.59613E-03  1.31923E-02  1.31923E-02
      8.56680  6.63353E-03  1.32671E-02  1.32671E-02
      8.59100  6.67153E-03  1.33431E-02  1.33431E-02
      8.61520  6.71005E-03  1.34201E-02  1.34201E-02
      8.63940  6.74899E-03  1.34980E-02  1.34980E-02
      8.66360  6.78824E-03  1.35765E-02  1.35765E-02
      8.68780  6.82770E-03  1.36554E-02  1.36554E-02
      8.71200  6.86728E-03  1.37346E-02  1.37346E-02
      8.73620  6.90687E-03  1.38137E-02  1.38137E-02
      8.76040  6.94640E-03  1.38928E-02  1.38928E-02
      8.78460  6.98578E-03  1.39716E-02  1.39716E-02
      8.80880  7.02495E-03  1.40499E-02  1.40499E-02
      8.83300  7.06385E-03  1.41277E-02  1.41277E-02
      8.85720  7.10243E-03  1.42049E-02  1.42049E-02
      8.88140  7.14067E-03  1.42813E-02  1.42813E-02
      8.90560  7.17854E-03  1.43571E-02  1.43571E-02
      8.92980  7.21600E-03  1.44320E-02  1.44320E-02
      8.95400  7.25307E-03  1.45061E-02  1.45061E-02
      8.97820  7.28974E-03  1.45795E-02  1.45795E-02
      9.00240  7.32602E-03  1.46520E-02  1.46520E-02
      9.02660  7.36194E-03  1.47239E-02  1.47239E-02
      9.05080  7.39753E-03  1.47951E-02  1.47951E-02
      9.07500  7.43284E-03  1.48657E-02  1.48657E-02
      9.09920  7.46790E-03  1.49358E-02  1.49358E-02
      9.12340  7.50277E-03  1.50055E-02  1.50055E-02
      9.14760  7.53747E-03  1.50749E-02  1.50749E-02
      9.17180  7.57207E-03  1.51441E-02  1.51441E-02
      9.19600  7.60658E-03  1.52132E-02  1.52132E-02
      9.22020  7.64105E-03  1.52821E-02  1.52821E-02
      9.24440  7.67551E-03  1.53510E-02  1.53510E-02
      9.26860  7.70996E-03  1.54199E-02  1.54199E-02
      9.29280  7.74444E-03  1.54889E-02  1.54889E-02
      9.31700  7.77895E-03  1.55579E-02  1.55579E-02
      9.34120  7.81349E-03  1.56270E-02  1.56270E-02
      9.36540  7.84805E-03  1.56961E-02  1.56961E-02
      9.38960  7.88263E-03  1.57653E-02  1.57653E-02
      9.41380  7.91721E-03  1.58344E-02  1.58344E-02
      9.43800  7.95177E-03  1.59035E-02  1.59035E-02
      9.46220  7.98627E-03  1.59725E-02  1.59725E-02
      9.48640  8.02069E-03  1.60414E-02  1.60414E-02
      9.51060  8.05499E-03  1.61100E-02  1.61100E-02
      9.53480  8.08915E-03  1.61783E-02  1.61783E-02
      9.55900  8.12313E-03  1.62463E-02  1.62463E-02
      9.58320  8.15690E-03  1.63138E-02  1.63138E-02
      9.60740  8.19043E-03  1.63809E-02  1.63809E-02
      9.63160  8.22369E-03  1.64474E-02  1.64474E-02
      9.65580  8.25666E-03  1.65133E-02  1.65133E-02
      9.68000  8.28932E-03  1.65786E-02  1.65786E-02
      9.70420  8.32166E-03  1.66433E-02  1.66433E-02
      9.72840  8.35366E-03  1.67073E-02  1.67073E-02
      9.75260  8.38535E-03  1.67707E-02  1.67707E-02
      9.77680  8.41673E-03  1.68335E-02  1.68335E-02
      9.80100  8.44784E-03  1.68957E-02  1.68957E-02
      9.82520  8.47871E-03  1.69574E-02  1.69574E-02
      9.84940  8.50939E-03  1.70188E-02  1.70188E-02
      9.87360  8.53994E-03  1.70799E-02  1.70799E-02
      9.89780  8.57040E-03  1.71408E-02  1.71408E-02
      9.92200  8.60086E-03  1.72017E-02  1.72017E-02
      9.94620  8.63136E-03  1.72627E-02  1.72627E-02
      9.97040  8.66198E-03  1.73240E-02  1.73240E-02
      9.99460  8.69278E-03  1.73856E-02  1.73856E-02
     10.01880  8.72381E-03  1.74476E-02  1.74476E-02
     10.04300  8.75515E-03  1.75103E-02  1.75103E-02
     10.06720  8.78683E-03  1.75737E-02  1.75737E-02
     10.09140  8.81892E-03  1.76378E-02  1.76378E-02
     10.11560  8.85143E-03  1.77029E-02  1.77029E-02
     10.13980  8.88441E-03  1.77688E-02  1.77688E-02
     10.16400  8.91787E-03  1.78357E-02  1.78357E-02
     10.18820  8.95181E-03  1.79036E-02  1.79036E-02
     10.21240  8.98622E-03  1.79724E-02  1.79724E-02
     10.23660  9.02108E-03  1.80422E-02  1.80422E-02
     10.26080  9.05635E-03  1.81127E-02  1.81127E-02
     10.28500  9.09198E-03  1.81840E-02  1.81840E-02
     10.30920  9.12792E-03  1.82558E-02  1.82558E-02
     10.33340  9.16409E-03  1.83282E-02  1.83282E-02
     10.35760  9.20044E-03  1.84009E-02  1.84009E-02
     10.38180  9.23688E-03  1.84738E-02  1.84738E-02
     10.40600  9.27333E-03  1.85467E-02  1.85467E-02
     10.43020  9.30972E-03  1.86194E-02  1.86194E-02
     10.45440  9.34596E-03  1.86919E-02  1.86919E-02
     10.47860  9.38198E-03  1.87640E-02  1.87640E-02
     10.50280  9.41767E-03  1.88353E-02  1.88353E-02
     10.52700  9.45298E-03  1.89060E-02  1.89060E-02
     10.55120  9.48781E-03  1.89756E-02  1.89756E-02
     10.57540  9.52209E-03  1.90442E-02  1.90442E-02
     10.59960  9.55576E-03  1.91115E-02  1.91115E-02
     10.62380  9.58874E-03  1.91775E-02  1.91775E-02
     10.64800  9.62099E-03  1.92420E-02  1.92420E-02
     10.67220  9.65245E-03  1.93049E-02  1.93049E-02
     10.69640  9.68309E-03  1.93662E-02  1.93662E-02
     10.72060  9.71289E-03  1.94258E-02  1.94258E-02
     10.74480  9.74182E-03  1.94836E-02  1.94836E-02
     10.76900  9.76989E-03  1.95398E-02  1.95398E-02
     10.79320  9.79713E-03  1.95943E-02  1.95943E-02
     10.81740  9.82356E-03  1.96471E-02  1.96471E-02
     10.84160  9.84924E-03  1.96985E-02  1.96985E-02
     10.86580  9.87424E-03  1.97485E-02  1.97485E-02
     10.89000  9.89865E-03  1.97973E-02  1.97973E-02
     10.91420  9.92259E-03  1.98452E-02  1.98452E-02
     10.93840  9.94617E-03  1.98923E-02  1.98923E-02
     10.96260  9.96954E-03  1.99391E-02  1.99391E-02
     10.98680  9.99287E-03  1.99857E-02  1.99857E-02
     11.01100  1.00163E-02  2.00326E-02  2.00326E-02
     11.03520  1.00400E-02  2.00800E-02  2.00800E-02
     11.05940  1.00642E-02  2.01283E-02  2.01283E-02
     11.08360  1.00889E-02  2.01778E-02  2.01778E-02
     11.10780  1.01144E-02  2.02287E-02  2.02287E-02
     11.13200  1.01407E-02  2.02814E-02  2.02814E-02
     11.15620  1.01680E-02  2.03361E-02  2.03361E-02
     11.18040  1.01964E-02  2.03929E-02  2.03929E-02
     11.20460  1.02260E-02  2.04520E-02  2.04520E-02
     11.22880  1.02568E-02  2.05135E-02  2.05135E-02
     11.25300  1.02888E-02  2.05776E-02  2.05776E-02
     11.27720  1.03221E-02  2.06443E-02  2.06443E-02
     11.30140  1.03568E-02  2.07135E-02  2.07135E-02
     11.32560  1.03926E-02  2.07853E-02  2.07853E-02
     11.34980  1.04297E-02  2.08594E-02  2.08594E-02
     11.37400  1.04680E-02  2.09359E-02  2.09359E-02
     11.39820  1.05073E-02  2.10146E-02  2.10146E-02
     11.42240  1.05476E-02  2.10952E-02  2.10952E-02
     11.44660  1.05888E-02  2.11776E-02  2.11776E-02
     11.47080  1.06308E-02  2.12616E-02  2.12616E-02
     11.49500  1.06734E-02  2.13469E-02  2.13469E-02
     11.51920  1.07166E-02  2.14332E-02  2.14332E-02
     11.54340  1.07602E-02  2.15204E-02  2.15204E-02
     11.56760  1.08041E-02  2.16082E-02  2.16082E-02
     11.59180  1.08481E-02  2.16962E-02  2.16962E-02
     11.61600  1.08921E-02  2.17843E-02  2.17843E-02
     11.64020  1.09361E-02  2.18722E-02  2.18722E-02
     11.66440  1.09799E-02  2.19598E-02  2.19598E-02
     11.68860  1.10234E-02  2.20468E-02  2.20468E-02
     11.71280  1.10666E-02  2.21331E-02  2.21331E-02
     11.73700  1.11093E-02  2.22185E-02  2.22185E-02
     11.76120  1.11514E-02  2.23029E-02  2.23029E-02
     11.78540  1.11931E-02  2.23861E-02  2.23861E-02
     11.80960  1.12341E-02  2.24682E-02  2.24682E-02
     11.83380  1.12745E-02  2.25490E-02  2.25490E-02
     11.85800  1.13143E-02  2.26286E-02  2.26286E-02
     11.88220  1.13534E-02  2.27068E-02  2.27068E-02
     11.90640  1.13919E-02  2.27837E-02  2.27837E-02
     11.93060  1.14297E-02  2.28593E-02  2.28593E-02
     11.95480  1.14668E-02  2.29337E-02  2.29337E-02
     11.97900  1.15034E-02  2.30068E-02  2.30068E-02
     12.00320  1.15394E-02  2.30787E-02  2.30787E-02
     12.02740  1.15748E-02  2.31496E-02  2.31496E-02
     12.05160  1.16097E-02  2.32195E-02  2.32195E-02
     12.07580  1.16442E-02  2.32885E-02  2.32885E-02
     12.10000  1.16783E-02  2.33567E-02  2.33567E-02
